kx (1/m)	Eigenfrequency (Hz)	real(freq) (Hz)
0.0000	0.057584	0.057584
0.0000	0.15672	0.15672
0.0000	0.32157	0.32157
0.0000	0.87522	0.87522
0.0000	0.90805	0.90805
0.0000	1.7336	1.7336
0.0000	2.4723	2.4723
0.0000	2.7953	2.7953
0.0000	4.0414	4.0414
0.0000	4.7275	4.7275
0.0000	5.1351	5.1351
0.0000	6.5310	6.5310
0.0000	7.6787	7.6787
0.0000	8.2929	8.2929
0.0000	10.565	10.565
0.0000	11.511	11.511
0.0000	12.783	12.783
0.0000	14.171	14.171
0.0000	15.701	15.701
0.0000	16.475	16.475
0.0000	18.804	18.804
0.0000	19.594	19.594
0.0000	20.345	20.345
0.0000	23.809	23.809
0.0000	23.908	23.908
0.031416	4.8993	4.8993
0.031416	5.5992	5.5992
0.031416	5.9034	5.9034
0.031416	5.9517	5.9517
0.031416	6.1975	6.1975
0.031416	6.6739	6.6739
0.031416	7.5570	7.5570
0.031416	8.9374	8.9374
0.031416	10.448	10.448
0.031416	11.965	11.965
0.031416	13.431	13.431
0.031416	15.076	15.076
0.031416	16.061	16.061
0.031416	16.110	16.110
0.031416	16.350	16.350
0.031416	16.600	16.600
0.031416	17.446	17.446
0.031416	17.971	17.971
0.031416	19.029	19.029
0.031416	19.581	19.581
0.031416	21.029	21.029
0.031416	21.668	21.668
0.031416	24.121	24.121
0.031416	24.771	24.771
0.031416	27.118	27.118
0.031416	28.131	28.131
0.031416	29.478	29.478
0.031416	32.865	32.865
0.031416	33.485	33.485
0.031416	36.188	36.188
0.031416	38.675	38.675
0.031416	39.847	39.847
0.031416	43.135	43.135
0.031416	45.744	45.744
0.031416	46.386	46.386
0.031416	48.744	48.744
0.031416	51.906	51.906
0.031416	52.398	52.398
0.031416	54.283	54.283
0.031416	58.096	58.096
0.031416	58.464	58.464
0.031416	60.911	60.911
0.031416	66.114	66.114
0.031416	66.731	66.731
0.031416	68.922	68.922
0.031416	73.545	73.545
0.031416	74.560	74.560
0.031416	77.563	77.563
0.031416	80.149	80.149
0.031416	80.892	80.892
0.062832	7.0672	7.0672
0.062832	9.3515	9.3515
0.062832	11.756	11.756
0.062832	11.802	11.802
0.062832	11.830	11.830
0.062832	11.960	11.960
0.062832	12.203	12.203
0.062832	12.690	12.690
0.062832	13.729	13.729
0.062832	15.275	15.275
0.062832	16.737	16.737
0.062832	17.952	17.952
0.062832	19.366	19.366
0.062832	21.471	21.471
0.062832	24.024	24.024
0.062832	26.357	26.357
0.062832	27.384	27.384
0.062832	28.841	28.841
0.062832	31.127	31.127
0.062832	32.116	32.116
0.062832	32.148	32.148
0.062832	32.310	32.310
0.062832	32.631	32.631
0.062832	33.397	33.397
0.062832	33.855	33.855
0.062832	35.306	35.306
0.062832	36.121	36.121
0.062832	37.377	37.377
0.062832	39.007	39.007
0.062832	40.438	40.438
0.062832	42.738	42.738
0.062832	44.314	44.314
0.062832	46.332	46.332
0.062832	47.770	47.770
0.062832	50.217	50.217
0.062832	52.159	52.159
0.062832	52.716	52.716
0.062832	55.759	55.759
0.062832	56.652	56.652
0.062832	59.023	59.023
0.062832	61.847	61.847
0.062832	62.853	62.853
0.062832	66.886	66.886
0.062832	69.408	69.408
0.062832	70.801	70.801
0.062832	74.348	74.348
0.062832	77.190	77.190
0.062832	77.837	77.837
0.062832	81.415	81.415
0.062832	83.321	83.321
0.094248	8.6074	8.6074
0.094248	10.945	10.945
0.094248	15.109	15.109
0.094248	17.701	17.701
0.094248	17.714	17.714
0.094248	17.779	17.779
0.094248	17.922	17.922
0.094248	18.168	18.168
0.094248	18.547	18.547
0.094248	19.046	19.046
0.094248	20.183	20.183
0.094248	21.504	21.504
0.094248	22.805	22.805
0.094248	24.707	24.707
0.094248	26.671	26.671
0.094248	28.724	28.724
0.094248	30.889	30.889
0.094248	33.304	33.304
0.094248	36.147	36.147
0.094248	36.513	36.513
0.094248	39.554	39.554
0.094248	42.732	42.732
0.094248	45.361	45.361
0.094248	47.631	47.631
0.094248	48.173	48.173
0.094248	48.197	48.197
0.094248	48.287	48.287
0.094248	48.565	48.565
0.094248	49.000	49.000
0.094248	49.903	49.903
0.094248	50.496	50.496
0.094248	51.749	51.749
0.094248	52.573	52.573
0.094248	53.560	53.560
0.094248	54.984	54.984
0.094248	56.720	56.720
0.094248	58.010	58.010
0.094248	59.602	59.602
0.094248	61.105	61.105
0.094248	63.561	63.561
0.094248	65.381	65.381
0.094248	67.846	67.846
0.094248	70.080	70.080
0.094248	71.284	71.284
0.094248	75.280	75.280
0.094248	76.837	76.837
0.094248	78.314	78.314
0.094248	81.885	81.885
0.094248	82.483	82.483
0.094248	85.489	85.489
0.12566	9.4240	9.4240
0.12566	12.177	12.177
0.12566	18.160	18.160
0.12566	20.345	20.345
0.12566	23.600	23.600
0.12566	23.611	23.611
0.12566	23.659	23.659
0.12566	23.767	23.767
0.12566	23.965	23.965
0.12566	24.431	24.431
0.12566	25.253	25.253
0.12566	26.106	26.106
0.12566	26.813	26.813
0.12566	27.865	27.865
0.12566	29.829	29.829
0.12566	32.170	32.170
0.12566	34.508	34.508
0.12566	36.457	36.457
0.12566	38.355	38.355
0.12566	40.629	40.629
0.12566	43.404	43.404
0.12566	45.017	45.017
0.12566	47.748	47.748
0.12566	50.558	50.558
0.12566	52.641	52.641
0.12566	55.608	55.608
0.12566	58.708	58.708
0.12566	59.871	59.871
0.12566	61.658	61.658
0.12566	64.230	64.230
0.12566	64.251	64.251
0.12566	64.310	64.310
0.12566	64.509	64.509
0.12566	64.691	64.691
0.12566	65.189	65.189
0.12566	65.675	65.675
0.12566	66.957	66.957
0.12566	67.764	67.764
0.12566	68.908	68.908
0.12566	70.332	70.332
0.12566	71.778	71.778
0.12566	73.939	73.939
0.12566	75.832	75.832
0.12566	77.291	77.291
0.12566	79.216	79.216
0.12566	79.978	79.978
0.12566	83.177	83.177
0.12566	84.481	84.481
0.12566	86.248	86.248
0.12566	89.231	89.231
0.15708	9.9976	9.9976
0.15708	13.568	13.568
0.15708	19.180	19.180
0.15708	23.788	23.788
0.15708	27.460	27.460
0.15708	29.500	29.500
0.15708	29.510	29.510
0.15708	29.549	29.549
0.15708	29.635	29.635
0.15708	29.793	29.793
0.15708	30.174	30.174
0.15708	30.900	30.900
0.15708	31.859	31.859
0.15708	32.686	32.686
0.15708	34.028	34.028
0.15708	35.623	35.623
0.15708	37.850	37.850
0.15708	39.932	39.932
0.15708	41.655	41.655
0.15708	44.317	44.317
0.15708	45.847	45.847
0.15708	47.965	47.965
0.15708	50.727	50.727
0.15708	52.439	52.439
0.15708	55.217	55.217
0.15708	57.993	57.993
0.15708	60.166	60.166
0.15708	63.042	63.042
0.15708	65.526	65.526
0.15708	67.711	67.711
0.15708	70.558	70.558
0.15708	74.488	74.488
0.15708	77.672	77.672
0.15708	80.239	80.239
0.15708	80.288	80.288
0.15708	80.309	80.309
0.15708	80.363	80.363
0.15708	80.487	80.487
0.15708	80.747	80.747
0.15708	81.153	81.153
0.15708	81.724	81.724
0.15708	82.671	82.671
0.15708	83.476	83.476
0.15708	84.662	84.662
0.15708	85.808	85.808
0.15708	86.694	86.694
0.15708	88.807	88.807
0.15708	90.368	90.368
0.15708	91.717	91.717
0.15708	94.118	94.118
0.18850	10.685	10.685
0.18850	14.866	14.866
0.18850	19.839	19.839
0.18850	26.465	26.465
0.18850	29.608	29.608
0.18850	35.400	35.400
0.18850	35.410	35.410
0.18850	35.437	35.437
0.18850	35.496	35.496
0.18850	35.583	35.583
0.18850	35.738	35.738
0.18850	36.057	36.057
0.18850	36.670	36.670
0.18850	37.481	37.481
0.18850	38.245	38.245
0.18850	39.811	39.811
0.18850	41.948	41.948
0.18850	43.874	43.874
0.18850	45.319	45.319
0.18850	46.920	46.920
0.18850	49.003	49.003
0.18850	51.913	51.913
0.18850	52.180	52.180
0.18850	55.636	55.636
0.18850	58.143	58.143
0.18850	59.945	59.945
0.18850	62.554	62.554
0.18850	65.823	65.823
0.18850	68.598	68.598
0.18850	69.511	69.511
0.18850	73.297	73.297
0.18850	76.743	76.743
0.18850	79.428	79.428
0.18850	83.132	83.132
0.18850	85.552	85.552
0.18850	86.904	86.904
0.18850	89.223	89.223
0.18850	91.828	91.828
0.18850	94.873	94.873
0.18850	96.345	96.345
0.18850	96.373	96.373
0.18850	96.414	96.414
0.18850	96.534	96.534
0.18850	96.814	96.814
0.18850	97.237	97.237
0.18850	98.038	98.038
0.18850	98.579	98.579
0.18850	99.591	99.591
0.18850	100.80	100.80
0.18850	101.70	101.70
0.21991	11.540	11.540
0.21991	16.013	16.013
0.21991	20.529	20.529
0.21991	27.692	27.692
0.21991	32.850	32.850
0.21991	37.352	37.352
0.21991	41.300	41.300
0.21991	41.312	41.312
0.21991	41.340	41.340
0.21991	41.398	41.398
0.21991	41.508	41.508
0.21991	41.768	41.768
0.21991	42.275	42.275
0.21991	42.989	42.989
0.21991	43.588	43.588
0.21991	44.461	44.461
0.21991	45.509	45.509
0.21991	47.401	47.401
0.21991	49.379	49.379
0.21991	50.696	50.696
0.21991	52.321	52.321
0.21991	53.822	53.822
0.21991	56.345	56.345
0.21991	59.138	59.138
0.21991	60.085	60.085
0.21991	62.978	62.978
0.21991	65.581	65.581
0.21991	68.432	68.432
0.21991	70.300	70.300
0.21991	72.831	72.831
0.21991	75.931	75.931
0.21991	78.316	78.316
0.21991	81.775	81.775
0.21991	85.015	85.015
0.21991	87.069	87.069
0.21991	90.452	90.452
0.21991	92.123	92.123
0.21991	93.845	93.845
0.21991	97.594	97.594
0.21991	100.77	100.77
0.21991	104.19	104.19
0.21991	108.43	108.43
0.21991	110.97	110.97
0.21991	111.15	111.15
0.21991	112.40	112.40
0.21991	112.43	112.43
0.21991	112.48	112.48
0.21991	112.57	112.57
0.21991	112.80	112.80
0.21991	113.15	113.15
0.25133	12.536	12.536
0.25133	17.022	17.022
0.25133	21.297	21.297
0.25133	28.566	28.566
0.25133	35.381	35.381
0.25133	39.507	39.507
0.25133	45.577	45.577
0.25133	47.199	47.199
0.25133	47.212	47.212
0.25133	47.242	47.242
0.25133	47.290	47.290
0.25133	47.387	47.387
0.25133	47.617	47.617
0.25133	48.070	48.070
0.25133	48.716	48.716
0.25133	49.279	49.279
0.25133	50.376	50.376
0.25133	51.622	51.622
0.25133	52.845	52.845
0.25133	54.608	54.608
0.25133	55.889	55.889
0.25133	57.680	57.680
0.25133	60.278	60.278
0.25133	61.458	61.458
0.25133	63.685	63.685
0.25133	66.256	66.256
0.25133	68.584	68.584
0.25133	70.829	70.829
0.25133	73.125	73.125
0.25133	76.322	76.322
0.25133	77.562	77.562
0.25133	80.709	80.709
0.25133	84.112	84.112
0.25133	86.299	86.299
0.25133	89.363	89.363
0.25133	92.466	92.466
0.25133	94.830	94.830
0.25133	97.474	97.474
0.25133	99.619	99.619
0.25133	102.76	102.76
0.25133	106.70	106.70
0.25133	109.92	109.92
0.25133	110.28	110.28
0.25133	113.06	113.06
0.25133	117.33	117.33
0.25133	120.03	120.03
0.25133	122.04	122.04
0.25133	123.33	123.33
0.25133	123.98	123.98
0.25133	126.43	126.43
0.28274	13.633	13.633
0.28274	17.925	17.925
0.28274	22.146	22.146
0.28274	29.398	29.398
0.28274	36.707	36.707
0.28274	42.429	42.429
0.28274	46.666	46.666
0.28274	52.408	52.408
0.28274	53.099	53.099
0.28274	53.112	53.112
0.28274	53.146	53.146
0.28274	53.186	53.186
0.28274	53.272	53.272
0.28274	53.477	53.477
0.28274	53.879	53.879
0.28274	54.460	54.460
0.28274	54.968	54.968
0.28274	55.992	55.992
0.28274	57.501	57.501
0.28274	58.820	58.820
0.28274	60.146	60.146
0.28274	61.534	61.534
0.28274	63.791	63.791
0.28274	65.581	65.581
0.28274	67.115	67.115
0.28274	69.088	69.088
0.28274	71.777	71.777
0.28274	74.053	74.053
0.28274	76.614	76.614
0.28274	78.545	78.545
0.28274	80.161	80.161
0.28274	83.697	83.697
0.28274	85.625	85.625
0.28274	88.428	88.428
0.28274	91.487	91.487
0.28274	94.410	94.410
0.28274	97.909	97.909
0.28274	100.30	100.30
0.28274	101.88	101.88
0.28274	105.78	105.78
0.28274	108.96	108.96
0.28274	109.60	109.60
0.28274	111.40	111.40
0.28274	115.26	115.26
0.28274	118.69	118.69
0.28274	121.67	121.67
0.28274	122.68	122.68
0.28274	125.19	125.19
0.28274	127.29	127.29
0.28274	129.17	129.17
0.31416	14.797	14.797
0.31416	18.757	18.757
0.31416	23.067	23.067
0.31416	30.243	30.243
0.31416	37.565	37.565
0.31416	44.593	44.593
0.31416	48.602	48.602
0.31416	53.308	53.308
0.31416	58.999	58.999
0.31416	59.011	59.011
0.31416	59.047	59.047
0.31416	59.086	59.086
0.31416	59.146	59.146
0.31416	59.283	59.283
0.31416	59.475	59.475
0.31416	59.789	59.789
0.31416	60.278	60.278
0.31416	60.739	60.739
0.31416	61.716	61.716
0.31416	63.301	63.301
0.31416	65.067	65.067
0.31416	66.240	66.240
0.31416	67.788	67.788
0.31416	69.363	69.363
0.31416	69.995	69.995
0.31416	72.757	72.757
0.31416	75.346	75.346
0.31416	77.599	77.599
0.31416	79.522	79.522
0.31416	81.125	81.125
0.31416	84.096	84.096
0.31416	85.566	85.566
0.31416	87.943	87.943
0.31416	90.736	90.736
0.31416	93.633	93.633
0.31416	97.086	97.086
0.31416	100.48	100.48
0.31416	102.10	102.10
0.31416	105.52	105.52
0.31416	108.91	108.91
0.31416	109.19	109.19
0.31416	110.45	110.45
0.31416	113.84	113.84
0.31416	117.36	117.36
0.31416	120.10	120.10
0.31416	123.28	123.28
0.31416	123.60	123.60
0.31416	126.24	126.24
0.31416	129.63	129.63
0.31416	129.90	129.90
0.34558	16.002	16.002
0.34558	19.547	19.547
0.34558	24.052	24.052
0.34558	31.110	31.110
0.34558	38.294	38.294
0.34558	45.630	45.630
0.34558	51.014	51.014
0.34558	54.700	54.700
0.34558	60.725	60.725
0.34558	64.898	64.898
0.34558	64.910	64.910
0.34558	64.950	64.950
0.34558	64.999	64.999
0.34558	65.050	65.050
0.34558	65.211	65.211
0.34558	65.525	65.525
0.34558	66.001	66.001
0.34558	66.422	66.422
0.34558	67.196	67.196
0.34558	68.234	68.234
0.34558	69.223	69.223
0.34558	70.667	70.667
0.34558	71.809	71.809
0.34558	72.984	72.984
0.34558	74.326	74.326
0.34558	76.543	76.543
0.34558	78.493	78.493
0.34558	80.871	80.871
0.34558	82.920	82.920
0.34558	85.068	85.068
0.34558	86.793	86.793
0.34558	88.287	88.287
0.34558	90.727	90.727
0.34558	93.005	93.005
0.34558	96.589	96.589
0.34558	99.786	99.786
0.34558	102.20	102.20
0.34558	105.15	105.15
0.34558	108.22	108.22
0.34558	109.11	109.11
0.34558	111.30	111.30
0.34558	113.22	113.22
0.34558	116.63	116.63
0.34558	119.04	119.04
0.34558	122.26	122.26
0.34558	123.84	123.84
0.34558	125.20	125.20
0.34558	127.89	127.89
0.34558	129.62	129.62
0.34558	131.85	131.85
0.37699	17.227	17.227
0.37699	20.313	20.313
0.37699	25.094	25.094
0.37699	32.000	32.000
0.37699	38.984	38.984
0.37699	46.270	46.270
0.37699	52.514	52.514
0.37699	57.051	57.051
0.37699	61.954	61.954
0.37699	69.448	69.448
0.37699	70.798	70.798
0.37699	70.810	70.810
0.37699	70.849	70.849
0.37699	70.915	70.915
0.37699	70.949	70.949
0.37699	71.098	71.098
0.37699	71.391	71.391
0.37699	71.835	71.835
0.37699	72.234	72.234
0.37699	73.009	73.009
0.37699	74.321	74.321
0.37699	75.742	75.742
0.37699	76.338	76.338
0.37699	77.045	77.045
0.37699	78.027	78.027
0.37699	79.766	79.766
0.37699	82.307	82.307
0.37699	84.501	84.501
0.37699	86.446	86.446
0.37699	88.332	88.332
0.37699	90.193	90.193
0.37699	92.024	92.024
0.37699	93.001	93.001
0.37699	96.559	96.559
0.37699	99.696	99.696
0.37699	101.85	101.85
0.37699	104.89	104.89
0.37699	107.52	107.52
0.37699	108.39	108.39
0.37699	111.72	111.72
0.37699	113.77	113.77
0.37699	116.98	116.98
0.37699	118.50	118.50
0.37699	121.49	121.49
0.37699	124.33	124.33
0.37699	124.53	124.53
0.37699	126.73	126.73
0.37699	129.41	129.41
0.37699	130.28	130.28
0.37699	133.60	133.60
0.40841	18.457	18.457
0.40841	21.068	21.068
0.40841	26.190	26.190
0.40841	32.912	32.912
0.40841	39.665	39.665
0.40841	46.812	46.812
0.40841	53.376	53.376
0.40841	59.300	59.300
0.40841	63.838	63.838
0.40841	70.462	70.462
0.40841	76.698	76.698
0.40841	76.708	76.708
0.40841	76.746	76.746
0.40841	76.824	76.824
0.40841	76.856	76.856
0.40841	76.976	76.976
0.40841	77.223	77.223
0.40841	77.591	77.591
0.40841	77.902	77.902
0.40841	78.207	78.207
0.40841	78.864	78.864
0.40841	79.340	79.340
0.40841	80.101	80.101
0.40841	81.575	81.575
0.40841	82.610	82.610
0.40841	84.322	84.322
0.40841	85.755	85.755
0.40841	87.792	87.792
0.40841	90.208	90.208
0.40841	92.070	92.070
0.40841	93.644	93.644
0.40841	95.101	95.101
0.40841	97.516	97.516
0.40841	100.59	100.59
0.40841	101.76	101.76
0.40841	104.85	104.85
0.40841	106.83	106.83
0.40841	108.05	108.05
0.40841	111.18	111.18
0.40841	114.12	114.12
0.40841	117.34	117.34
0.40841	119.29	119.29
0.40841	121.22	121.22
0.40841	124.63	124.63
0.40841	124.70	124.70
0.40841	126.06	126.06
0.40841	129.29	129.29
0.40841	129.37	129.37
0.40841	132.65	132.65
0.40841	135.20	135.20
0.43982	19.679	19.679
0.43982	21.821	21.821
0.43982	27.336	27.336
0.43982	33.844	33.844
0.43982	40.348	40.348
0.43982	47.337	47.337
0.43982	54.066	54.066
0.43982	60.740	60.740
0.43982	66.352	66.352
0.43982	71.671	71.671
0.43982	79.129	79.129
0.43982	81.704	81.704
0.43982	82.598	82.598
0.43982	82.608	82.608
0.43982	82.645	82.645
0.43982	82.727	82.727
0.43982	82.782	82.782
0.43982	82.875	82.875
0.43982	83.115	83.115
0.43982	83.491	83.491
0.43982	83.847	83.847
0.43982	84.458	84.458
0.43982	85.426	85.426
0.43982	86.160	86.160
0.43982	87.243	87.243
0.43982	88.203	88.203
0.43982	89.988	89.988
0.43982	91.894	91.894
0.43982	93.400	93.400
0.43982	95.698	95.698
0.43982	97.748	97.748
0.43982	99.550	99.550
0.43982	101.99	101.99
0.43982	103.39	103.39
0.43982	105.37	105.37
0.43982	106.14	106.14
0.43982	108.31	108.31
0.43982	110.85	110.85
0.43982	114.08	114.08
0.43982	117.24	117.24
0.43982	119.85	119.85
0.43982	121.69	121.69
0.43982	124.91	124.91
0.43982	125.27	125.27
0.43982	126.18	126.18
0.43982	129.10	129.10
0.43982	129.32	129.32
0.43982	132.39	132.39
0.43982	134.46	134.46
0.43982	137.63	137.63
0.47124	20.875	20.875
0.47124	22.584	22.584
0.47124	28.529	28.529
0.47124	34.795	34.795
0.47124	41.037	41.037
0.47124	47.878	47.878
0.47124	54.722	54.722
0.47124	61.723	61.723
0.47124	68.564	68.564
0.47124	73.501	73.501
0.47124	80.000	80.000
0.47124	83.807	83.807
0.47124	86.859	86.859
0.47124	88.497	88.497
0.47124	88.507	88.507
0.47124	88.543	88.543
0.47124	88.626	88.626
0.47124	88.717	88.717
0.47124	88.774	88.774
0.47124	88.999	88.999
0.47124	89.350	89.350
0.47124	89.693	89.693
0.47124	90.274	90.274
0.47124	91.305	91.305
0.47124	92.458	92.458
0.47124	93.132	93.132
0.47124	93.890	93.890
0.47124	95.587	95.587
0.47124	97.871	97.871
0.47124	99.958	99.958
0.47124	101.74	101.74
0.47124	103.68	103.68
0.47124	105.45	105.45
0.47124	105.72	105.72
0.47124	107.78	107.78
0.47124	109.71	109.71
0.47124	111.00	111.00
0.47124	114.25	114.25
0.47124	117.46	117.46
0.47124	119.74	119.74
0.47124	122.19	122.19
0.47124	124.93	124.93
0.47124	125.24	125.24
0.47124	127.32	127.32
0.47124	129.48	129.48
0.47124	129.52	129.52
0.47124	133.02	133.02
0.47124	134.38	134.38
0.47124	137.11	137.11
0.47124	140.53	140.53
0.50265	22.019	22.019
0.50265	23.376	23.376
0.50265	29.766	29.766
0.50265	35.762	35.762
0.50265	41.736	41.736
0.50265	48.450	48.450
0.50265	55.386	55.386
0.50265	62.545	62.545
0.50265	70.009	70.009
0.50265	75.859	75.859
0.50265	81.092	81.092
0.50265	85.443	85.443
0.50265	88.101	88.101
0.50265	93.747	93.747
0.50265	94.397	94.397
0.50265	94.406	94.406
0.50265	94.441	94.441
0.50265	94.525	94.525
0.50265	94.654	94.654
0.50265	94.678	94.678
0.50265	94.891	94.891
0.50265	95.219	95.219
0.50265	95.550	95.550
0.50265	96.096	96.096
0.50265	97.094	97.094
0.50265	98.365	98.365
0.50265	99.263	99.263
0.50265	100.55	100.55
0.50265	101.80	101.80
0.50265	103.68	103.68
0.50265	104.76	104.76
0.50265	106.11	106.11
0.50265	108.23	108.23
0.50265	109.90	109.90
0.50265	111.73	111.73
0.50265	113.24	113.24
0.50265	115.34	115.34
0.50265	118.30	118.30
0.50265	119.85	119.85
0.50265	122.57	122.57
0.50265	124.77	124.77
0.50265	125.31	125.31
0.50265	127.71	127.71
0.50265	129.89	129.89
0.50265	130.21	130.21
0.50265	133.57	133.57
0.50265	135.66	135.66
0.50265	137.29	137.29
0.50265	140.58	140.58
0.50265	143.08	143.08
0.53407	23.066	23.066
0.53407	24.239	24.239
0.53407	31.042	31.042
0.53407	36.745	36.745
0.53407	42.448	42.448
0.53407	49.063	49.063
0.53407	56.074	56.074
0.53407	63.315	63.315
0.53407	70.994	70.994
0.53407	77.911	77.911
0.53407	82.713	82.713
0.53407	86.680	86.680
0.53407	89.687	89.687
0.53407	94.820	94.820
0.53407	100.30	100.30
0.53407	100.31	100.31
0.53407	100.34	100.34
0.53407	100.42	100.42
0.53407	100.56	100.56
0.53407	100.61	100.61
0.53407	100.77	100.77
0.53407	101.06	101.06
0.53407	101.37	101.37
0.53407	101.75	101.75
0.53407	102.21	102.21
0.53407	102.99	102.99
0.53407	104.07	104.07
0.53407	104.15	104.15
0.53407	105.01	105.01
0.53407	106.52	106.52
0.53407	108.61	108.61
0.53407	110.46	110.46
0.53407	111.99	111.99
0.53407	113.87	113.87
0.53407	115.74	115.74
0.53407	117.75	117.75
0.53407	120.19	120.19
0.53407	121.08	121.08
0.53407	123.36	123.36
0.53407	124.48	124.48
0.53407	125.76	125.76
0.53407	127.91	127.91
0.53407	130.38	130.38
0.53407	130.83	130.83
0.53407	133.73	133.73
0.53407	136.56	136.56
0.53407	138.67	138.67
0.53407	141.60	141.60
0.53407	143.37	143.37
0.53407	145.74	145.74
0.56549	23.972	23.972
0.56549	25.214	25.214
0.56549	32.353	32.353
0.56549	37.741	37.741
0.56549	43.178	43.178
0.56549	49.722	49.722
0.56549	56.791	56.791
0.56549	64.071	64.071
0.56549	71.798	71.798
0.56549	79.234	79.234
0.56549	84.594	84.594
0.56549	88.030	88.030
0.56549	91.467	91.467
0.56549	95.993	95.993
0.56549	103.17	103.17
0.56549	103.39	103.39
0.56549	106.20	106.20
0.56549	106.20	106.20
0.56549	106.24	106.24
0.56549	106.32	106.32
0.56549	106.46	106.46
0.56549	106.56	106.56
0.56549	106.68	106.68
0.56549	106.96	106.96
0.56549	107.27	107.27
