kx (1/m)	特征频率 (Hz)	角频率 (rad/s)
0.0000	0.13395	0.84164
0.0000	0.20177	1.2677
0.0000	0.75486	4.7429
0.0000	1.3618	8.5561
0.0000	2.1263	13.360
0.0000	3.8720	24.328
0.0000	4.1763	26.240
0.0000	5.6178	35.298
0.0000	7.6651	48.161
0.0000	8.2607	51.904
0.0000	11.094	69.705
0.0000	12.088	75.954
0.0000	15.816	99.373
0.0000	16.323	102.56
0.0000	19.132	120.21
0.0000	23.355	146.74
0.0000	24.048	151.10
0.0000	28.751	180.65
0.0000	31.507	197.96
0.0000	32.319	203.07
0.031416	2.2191	13.943
0.031416	2.5484	16.012
0.031416	3.4742	21.829
0.031416	3.9984	25.122
0.031416	4.8395	30.408
0.031416	5.0939	32.006
0.031416	5.9851	37.605
0.031416	6.4819	40.727
0.031416	8.3368	52.382
0.031416	8.8595	55.666
0.031416	11.861	74.523
0.031416	12.150	76.339
0.031416	15.953	100.24
0.031416	16.995	106.78
0.031416	19.272	121.09
0.031416	23.466	147.44
0.031416	24.438	153.55
0.031416	28.805	180.99
0.031416	31.725	199.34
0.031416	32.404	203.60
0.031416	38.277	240.50
0.031416	38.511	241.97
0.031416	42.594	267.62
0.031416	46.690	293.36
0.031416	49.513	311.10
0.031416	54.909	345.00
0.031416	57.528	361.46
0.031416	61.005	383.31
0.031416	64.669	406.33
0.031416	66.517	417.94
0.031416	74.071	465.40
0.031416	76.797	482.53
0.031416	79.772	501.22
0.031416	85.031	534.27
0.031416	87.837	551.90
0.031416	92.549	581.50
0.031416	98.843	621.05
0.031416	100.03	628.53
0.031416	106.01	666.09
0.031416	109.78	689.77
0.062832	4.2387	26.632
0.062832	5.0158	31.515
0.062832	5.3797	33.801
0.062832	6.0376	37.935
0.062832	6.8487	43.032
0.062832	8.5802	53.911
0.062832	9.6320	60.520
0.062832	10.031	63.024
0.062832	10.397	65.327
0.062832	11.158	70.108
0.062832	12.742	80.060
0.062832	13.869	87.143
0.062832	16.456	103.40
0.062832	18.690	117.44
0.062832	19.757	124.14
0.062832	23.806	149.58
0.062832	25.554	160.56
0.062832	28.976	182.06
0.062832	32.290	202.88
0.062832	32.742	205.72
0.062832	38.628	242.71
0.062832	38.915	244.51
0.062832	42.757	268.65
0.062832	47.142	296.20
0.062832	49.707	312.32
0.062832	54.955	345.29
0.062832	57.880	363.67
0.062832	61.068	383.70
0.062832	65.030	408.60
0.062832	66.611	418.53
0.062832	74.141	465.84
0.062832	77.073	484.26
0.062832	79.836	501.62
0.062832	85.232	535.53
0.062832	87.889	552.22
0.062832	92.584	581.72
0.062832	99.093	622.62
0.062832	100.08	628.80
0.062832	106.06	666.37
0.062832	109.93	690.70
0.094248	5.9918	37.648
0.094248	7.5055	47.158
0.094248	7.5466	47.416
0.094248	7.7813	48.891
0.094248	8.6745	54.503
0.094248	10.083	63.352
0.094248	12.228	76.831
0.094248	13.888	87.259
0.094248	14.338	90.088
0.094248	14.937	93.855
0.094248	15.373	96.590
0.094248	16.408	103.10
0.094248	17.875	112.31
0.094248	20.164	126.70
0.094248	21.508	135.14
0.094248	24.406	153.35
0.094248	27.271	171.35
0.094248	29.287	184.01
0.094248	32.873	206.55
0.094248	33.648	211.42
0.094248	38.955	244.76
0.094248	39.812	250.14
0.094248	43.055	270.52
0.094248	47.820	300.46
0.094248	50.100	314.79
0.094248	55.043	345.84
0.094248	58.433	367.14
0.094248	61.202	384.55
0.094248	65.611	412.25
0.094248	66.778	419.58
0.094248	74.257	466.57
0.094248	77.520	487.07
0.094248	79.949	502.33
0.094248	85.565	537.62
0.094248	87.979	552.79
0.094248	92.644	582.10
0.094248	99.502	625.19
0.094248	100.15	629.25
0.094248	106.13	666.85
0.094248	110.17	692.24
0.12566	7.2295	45.424
0.12566	9.2274	57.978
0.12566	10.007	62.877
0.12566	10.150	63.772
0.12566	10.805	67.891
0.12566	11.870	74.582
0.12566	13.743	86.351
0.12566	16.480	103.55
0.12566	17.431	109.52
0.12566	18.432	115.81
0.12566	19.645	123.43
0.12566	20.093	126.25
0.12566	20.848	130.99
0.12566	21.816	137.07
0.12566	24.222	152.19
0.12566	25.560	160.60
0.12566	29.416	184.83
0.12566	29.777	187.09
0.12566	33.581	211.00
0.12566	35.022	220.05
0.12566	39.412	247.63
0.12566	40.981	257.49
0.12566	43.559	273.69
0.12566	48.577	305.22
0.12566	50.831	319.38
0.12566	55.180	346.71
0.12566	59.133	371.55
0.12566	61.450	386.10
0.12566	66.360	416.95
0.12566	67.063	421.37
0.12566	74.419	467.59
0.12566	78.119	490.84
0.12566	80.123	503.43
0.12566	86.026	540.52
0.12566	88.116	553.65
0.12566	92.733	582.66
0.12566	100.05	628.61
0.12566	100.27	630.02
0.12566	106.24	667.54
0.12566	110.51	694.38
0.15708	8.0555	50.614
0.15708	11.037	69.348
0.15708	12.505	78.574
0.15708	12.607	79.213
0.15708	13.083	82.206
0.15708	13.909	87.395
0.15708	15.432	96.960
0.15708	18.193	114.31
0.15708	19.933	125.24
0.15708	20.836	130.92
0.15708	22.665	142.41
0.15708	24.342	152.95
0.15708	25.053	157.41
0.15708	25.760	161.86
0.15708	26.099	163.98
0.15708	28.407	178.49
0.15708	30.533	191.84
0.15708	31.782	199.69
0.15708	34.674	217.86
0.15708	36.678	230.46
0.15708	40.061	251.71
0.15708	42.219	265.27
0.15708	44.461	279.36
0.15708	49.265	309.54
0.15708	52.033	326.93
0.15708	55.378	347.95
0.15708	59.903	376.38
0.15708	61.879	388.80
0.15708	67.013	421.05
0.15708	67.726	425.54
0.15708	74.628	468.90
0.15708	78.825	495.27
0.15708	80.391	505.11
0.15708	86.601	544.13
0.15708	88.318	554.92
0.15708	92.855	583.43
0.15708	100.35	630.53
0.15708	100.81	633.38
0.15708	106.39	668.44
0.15708	110.94	697.08
0.18850	8.7726	55.120
0.18850	12.868	80.854
0.18850	15.004	94.276
0.18850	15.082	94.762
0.18850	15.432	96.961
0.18850	16.067	100.95
0.18850	17.332	108.90
0.18850	19.800	124.41
0.18850	22.019	138.35
0.18850	22.584	141.90
0.18850	25.134	157.92
0.18850	27.285	171.44
0.18850	29.083	182.73
0.18850	30.035	188.71
0.18850	30.516	191.74
0.18850	30.847	193.82
0.18850	32.645	205.12
0.18850	34.049	213.93
0.18850	36.439	228.95
0.18850	38.507	241.95
0.18850	41.050	257.93
0.18850	43.264	271.83
0.18850	46.030	289.21
0.18850	49.893	313.49
0.18850	53.667	337.20
0.18850	55.646	349.63
0.18850	60.642	381.02
0.18850	62.585	393.23
0.18850	67.443	423.76
0.18850	68.899	432.91
0.18850	74.882	470.50
0.18850	79.543	499.79
0.18850	80.837	507.92
0.18850	87.243	548.16
0.18850	88.638	556.93
0.18850	93.013	584.42
0.18850	100.52	631.60
0.18850	101.64	638.64
0.18850	106.57	669.58
0.18850	111.46	700.31
0.21991	9.5232	59.836
0.21991	14.642	92.001
0.21991	17.504	109.98
0.21991	17.562	110.34
0.21991	17.801	111.85
0.21991	18.280	114.86
0.21991	19.371	121.71
0.21991	21.503	135.11
0.21991	23.741	149.17
0.21991	24.248	152.35
0.21991	27.136	170.50
0.21991	29.525	185.51
0.21991	32.023	201.21
0.21991	33.727	211.91
0.21991	34.493	216.73
0.21991	35.041	220.17
0.21991	35.965	225.97
0.21991	36.779	231.09
0.21991	38.951	244.74
0.21991	40.290	253.15
0.21991	42.772	268.74
0.21991	44.174	277.56
0.21991	48.209	302.90
0.21991	50.552	317.63
0.21991	55.545	349.00
0.21991	56.061	352.24
0.21991	61.316	385.26
0.21991	63.605	399.64
0.21991	67.883	426.52
0.21991	70.355	442.05
0.21991	75.180	472.37
0.21991	80.133	503.49
0.21991	81.588	512.64
0.21991	87.835	551.88
0.21991	89.201	560.47
0.21991	93.212	585.67
0.21991	100.72	632.84
0.21991	102.61	644.71
0.21991	106.79	670.99
0.21991	112.04	703.99
0.25133	10.356	65.067
0.25133	16.330	102.61
0.25133	20.001	125.67
0.25133	20.018	125.78
0.25133	20.139	126.54
0.25133	20.538	129.04
0.25133	21.493	135.04
0.25133	23.294	146.36
0.25133	25.322	159.10
0.25133	25.959	163.11
0.25133	28.721	180.46
0.25133	31.757	199.54
0.25133	33.803	212.39
0.25133	36.376	228.56
0.25133	38.415	241.37
0.25133	39.249	246.61
0.25133	40.038	251.56
0.25133	40.497	254.45
0.25133	41.916	263.37
0.25133	42.402	266.42
0.25133	45.167	283.79
0.25133	45.503	285.91
0.25133	50.704	318.58
0.25133	51.398	322.94
0.25133	56.367	354.17
0.25133	57.814	363.26
0.25133	62.019	389.68
0.25133	64.886	407.69
0.25133	68.401	429.78
0.25133	72.032	452.59
0.25133	75.526	474.54
0.25133	80.599	506.42
0.25133	82.628	519.17
0.25133	88.282	554.69
0.25133	90.108	566.17
0.25133	93.453	587.19
0.25133	100.95	634.30
0.25133	103.68	651.42
0.25133	107.06	672.70
0.25133	112.68	708.02
0.28274	11.281	70.879
0.28274	17.924	112.62
0.28274	22.178	139.35
0.28274	22.503	141.39
0.28274	22.566	141.79
0.28274	22.883	143.78
0.28274	23.673	148.74
0.28274	25.132	157.91
0.28274	26.954	169.36
0.28274	27.704	174.07
0.28274	30.250	190.06
0.28274	33.425	210.02
0.28274	36.133	227.03
0.28274	38.195	239.99
0.28274	40.824	256.50
0.28274	42.996	270.15
0.28274	43.480	273.19
0.28274	45.026	282.91
0.28274	45.547	286.18
0.28274	45.592	286.46
0.28274	47.229	296.75
0.28274	48.716	306.09
0.28274	52.173	327.82
0.28274	53.705	337.44
0.28274	56.984	358.04
0.28274	59.927	376.53
0.28274	62.942	395.48
0.28274	66.359	416.95
0.28274	69.048	433.84
0.28274	73.895	464.30
0.28274	75.933	477.10
0.28274	81.040	509.19
0.28274	83.847	526.83
0.28274	88.640	556.94
0.28274	91.310	573.72
0.28274	93.742	589.00
0.28274	101.22	636.01
0.28274	104.82	658.63
0.28274	107.40	674.82
0.28274	113.35	712.18
0.31416	12.293	77.237
0.31416	19.427	122.07
0.31416	23.973	150.63
0.31416	25.003	157.10
0.31416	25.051	157.40
0.31416	25.295	158.93
0.31416	25.899	162.73
0.31416	27.013	169.73
0.31416	28.730	180.52
0.31416	29.513	185.44
0.31416	31.815	199.90
0.31416	34.906	219.32
0.31416	38.312	240.72
0.31416	40.213	252.67
0.31416	42.332	265.98
0.31416	44.905	282.15
0.31416	47.110	296.00
0.31416	47.978	301.46
0.31416	50.025	314.32
0.31416	50.314	316.13
0.31416	51.153	321.40
0.31416	51.728	325.02
0.31416	53.956	339.01
0.31416	56.232	353.31
0.31416	58.150	365.37
0.31416	61.675	387.51
0.31416	64.434	404.85
0.31416	67.924	426.78
0.31416	69.953	439.53
0.31416	75.737	475.87
0.31416	76.589	481.22
0.31416	81.510	512.14
0.31416	85.185	535.23
0.31416	88.981	559.09
0.31416	92.734	582.67
0.31416	94.083	591.14
0.31416	101.54	638.00
0.31416	106.00	666.00
0.31416	107.85	677.61
0.31416	113.99	716.19
0.34558	13.381	84.074
0.34558	20.847	130.98
0.34558	25.435	159.81
0.34558	27.502	172.80
0.34558	27.541	173.05
0.34558	27.721	174.18
0.34558	28.141	176.81
0.34558	28.996	182.19
0.34558	30.667	192.69
0.34558	31.376	197.14
0.34558	33.433	210.07
0.34558	36.417	228.81
0.34558	40.151	252.28
0.34558	42.094	264.48
0.34558	44.143	277.36
0.34558	46.471	291.99
0.34558	48.893	307.21
0.34558	52.327	328.78
0.34558	53.205	334.30
0.34558	55.021	345.71
0.34558	55.355	347.81
0.34558	55.446	348.38
0.34558	57.242	359.66
0.34558	57.681	362.42
0.34558	60.709	381.45
0.34558	62.955	395.56
0.34558	66.602	418.47
0.34558	69.319	435.54
0.34558	71.447	448.92
0.34558	76.590	481.23
0.34558	78.438	492.84
0.34558	82.038	515.46
0.34558	86.615	544.22
0.34558	89.340	561.34
0.34558	94.315	592.60
0.34558	94.511	593.83
0.34558	101.91	640.31
0.34558	107.07	672.74
0.34558	108.51	681.79
0.34558	114.55	719.76
0.37699	14.532	91.310
0.37699	22.189	139.42
0.37699	26.642	167.40
0.37699	30.000	188.50
0.37699	30.011	188.57
0.37699	30.100	189.13
0.37699	30.395	190.98
0.37699	31.126	195.57
0.37699	32.717	205.57
0.37699	33.254	208.94
0.37699	35.122	220.68
0.37699	38.015	238.86
0.37699	41.834	262.85
0.37699	43.582	273.83
0.37699	46.132	289.85
0.37699	48.247	303.14
0.37699	50.778	319.05
0.37699	54.196	340.52
0.37699	57.066	358.56
0.37699	58.223	365.83
0.37699	59.942	376.62
0.37699	60.026	377.15
0.37699	60.228	378.42
0.37699	60.991	383.22
0.37699	63.684	400.14
0.37699	64.443	404.91
0.37699	69.083	434.06
0.37699	70.493	442.92
0.37699	73.696	463.04
0.37699	77.123	484.58
0.37699	80.771	507.50
0.37699	82.657	519.35
0.37699	88.119	553.67
0.37699	89.745	563.88
0.37699	94.932	596.48
0.37699	96.117	603.92
0.37699	102.35	643.07
0.37699	107.88	677.81
0.37699	109.55	688.35
0.37699	115.04	722.84
0.40841	15.736	98.874
0.40841	23.457	147.39
0.40841	27.706	174.08
0.40841	32.156	202.04
0.40841	32.502	204.22
0.40841	32.545	204.49
0.40841	32.771	205.91
0.40841	33.388	209.78
0.40841	34.813	218.74
0.40841	35.121	220.67
0.40841	36.918	231.96
0.40841	39.721	249.57
0.40841	43.451	273.01
0.40841	44.946	282.41
0.40841	47.776	300.19
0.40841	50.432	316.87
0.40841	52.800	331.75
0.40841	55.462	348.48
0.40841	59.056	371.06
0.40841	61.724	387.82
0.40841	63.259	397.47
0.40841	64.161	403.14
0.40841	65.017	408.51
0.40841	65.260	410.04
0.40841	65.947	414.36
0.40841	67.729	425.56
0.40841	71.153	447.07
0.40841	72.299	454.27
0.40841	76.481	480.55
0.40841	77.674	488.04
0.40841	82.934	521.09
0.40841	83.677	525.76
0.40841	89.610	563.04
0.40841	90.300	567.37
0.40841	95.478	599.91
0.40841	97.970	615.56
0.40841	102.89	646.50
0.40841	108.50	681.74
0.40841	110.89	696.73
0.40841	115.48	725.60
0.43982	16.982	106.70
0.43982	24.653	154.90
0.43982	28.715	180.42
0.43982	33.996	213.61
0.43982	35.002	219.92
0.43982	35.038	220.15
0.43982	35.221	221.30
0.43982	35.723	224.45
0.43982	36.778	231.08
0.43982	37.129	233.29
0.43982	38.845	244.07
0.43982	41.532	260.96
0.43982	45.014	282.83
0.43982	46.342	291.18
0.43982	49.184	309.03
0.43982	52.700	331.12
0.43982	54.951	345.27
0.43982	56.816	356.99
0.43982	60.118	377.73
0.43982	64.654	406.23
0.43982	66.253	416.28
0.43982	67.706	425.41
0.43982	68.696	431.63
0.43982	70.019	439.94
0.43982	70.365	442.12
0.43982	71.268	447.79
0.43982	72.905	458.08
0.43982	75.174	472.33
0.43982	78.307	492.02
0.43982	79.623	500.29
0.43982	83.963	527.55
0.43982	86.017	540.46
0.43982	90.510	568.69
0.43982	91.617	575.65
0.43982	96.136	604.04
0.43982	99.802	627.07
0.43982	103.64	651.19
0.43982	109.10	685.46
0.43982	112.36	705.99
0.43982	115.90	728.24
0.47124	18.260	114.73
0.47124	25.774	161.94
0.47124	29.725	186.77
0.47124	35.592	223.63
0.47124	37.502	235.63
0.47124	37.533	235.82
0.47124	37.684	236.78
0.47124	38.065	239.17
0.47124	38.639	242.77
0.47124	39.318	247.04
0.47124	40.888	256.91
0.47124	43.438	272.93
0.47124	46.506	292.21
0.47124	47.818	300.45
0.47124	50.559	317.67
0.47124	54.773	344.15
0.47124	57.123	358.91
0.47124	58.349	366.62
0.47124	61.323	385.30
0.47124	65.930	414.25
0.47124	69.686	437.85
0.47124	70.706	444.26
0.47124	72.552	455.86
0.47124	73.494	461.78
0.47124	75.016	471.34
0.47124	75.289	473.06
0.47124	76.374	479.87
0.47124	78.100	490.72
0.47124	79.416	498.98
0.47124	82.849	520.55
0.47124	85.074	534.54
0.47124	88.511	556.13
0.47124	91.210	573.09
0.47124	93.370	586.66
0.47124	96.986	609.38
0.47124	101.39	637.04
0.47124	104.77	658.30
0.47124	109.73	689.43
0.47124	113.92	715.78
0.47124	116.33	730.91
0.50265	19.563	122.92
0.50265	26.824	168.54
0.50265	30.765	193.31
0.50265	36.959	232.22
0.50265	40.002	251.34
0.50265	40.020	251.45
0.50265	40.096	251.93
0.50265	40.287	253.13
0.50265	40.714	255.82
0.50265	41.559	261.13
0.50265	43.011	270.24
0.50265	45.417	285.36
0.50265	47.917	301.07
0.50265	49.381	310.27
0.50265	51.991	326.67
0.50265	56.625	355.79
0.50265	59.070	371.15
0.50265	60.089	377.55
0.50265	62.833	394.79
0.50265	67.164	422.00
0.50265	71.676	450.35
0.50265	73.788	463.62
0.50265	75.237	472.73
0.50265	77.541	487.20
0.50265	79.192	497.58
0.50265	79.931	502.22
0.50265	80.022	502.79
0.50265	80.487	505.72
0.50265	82.751	519.94
0.50265	85.075	534.54
0.50265	87.481	549.66
0.50265	90.548	568.93
0.50265	92.398	580.56
0.50265	95.142	597.80
0.50265	98.218	617.12
0.50265	102.55	644.34
0.50265	106.41	668.60
0.50265	110.45	693.98
0.50265	115.55	726.00
0.50265	116.78	733.78
0.53407	20.885	131.23
0.53407	27.807	174.72
0.53407	31.850	200.12
0.53407	38.150	239.70
0.53407	42.058	264.26
0.53407	42.502	267.05
0.53407	42.531	267.23
0.53407	42.680	268.17
0.53407	43.062	270.56
0.53407	43.829	275.39
0.53407	45.187	283.92
0.53407	47.444	298.10
0.53407	49.255	309.48
0.53407	51.015	320.53
0.53407	53.518	336.27
0.53407	58.319	366.43
0.53407	60.812	382.09
0.53407	61.769	388.10
0.53407	64.757	406.88
0.53407	68.513	430.48
0.53407	73.301	460.56
0.53407	75.414	473.84
0.53407	78.865	495.52
0.53407	80.338	504.78
0.53407	82.175	516.32
0.53407	82.917	520.98
0.53407	85.015	534.17
0.53407	85.313	536.03
0.53407	86.403	542.89
0.53407	87.108	547.32
0.53407	90.928	571.31
0.53407	91.786	576.71
0.53407	94.500	593.76
0.53407	96.749	607.89
0.53407	100.12	629.05
0.53407	103.41	649.72
0.53407	108.30	680.49
0.53407	111.37	699.76
0.53407	117.05	735.42
0.53407	117.49	738.24
0.56549	22.220	139.61
0.56549	28.737	180.56
0.56549	32.977	207.20
0.56549	39.227	246.47
0.56549	43.870	275.64
0.56549	45.002	282.75
0.56549	45.027	282.92
0.56549	45.153	283.70
0.56549	45.468	285.68
0.56549	46.119	289.77
0.56549	47.403	297.84
0.56549	49.471	310.83
0.56549	50.575	317.77
0.56549	52.694	331.08
0.56549	55.149	346.51
0.56549	59.913	376.44
0.56549	62.510	392.76
0.56549	63.260	397.47
0.56549	66.902	420.36
0.56549	70.077	440.31
0.56549	74.725	469.51
0.56549	76.931	483.37
0.56549	80.774	507.52
0.56549	83.355	523.73
0.56549	85.247	535.62
0.56549	86.784	545.28
0.56549	87.988	552.84
0.56549	90.015	565.58
0.56549	90.279	567.24
0.56549	91.447	574.58
0.56549	92.727	582.62
0.56549	94.452	593.46
0.56549	97.062	609.86
0.56549	98.369	618.07
0.56549	102.70	645.29
0.56549	104.15	654.41
0.56549	110.00	691.14
0.56549	112.71	708.18
0.56549	117.70	739.54
0.56549	119.22	749.11
0.59690	23.561	148.04
0.59690	29.628	186.16
0.59690	34.139	214.50
0.59690	40.237	252.82
0.59690	45.595	286.48
0.59690	47.502	298.46
0.59690	47.524	298.60
0.59690	47.628	299.26
0.59690	47.879	300.84
0.59690	48.427	304.27
0.59690	49.648	311.95
0.59690	51.298	322.31
0.59690	52.097	327.34
0.59690	54.397	341.79
0.59690	56.873	357.34
0.59690	61.447	386.08
0.59690	64.196	403.36
0.59690	64.693	406.48
0.59690	68.956	433.26
0.59690	71.938	452.00
0.59690	76.048	477.82
0.59690	78.436	492.83
0.59690	81.980	515.09
0.59690	86.367	542.66
0.59690	87.724	551.18
0.59690	89.872	564.68
0.59690	91.513	574.99
0.59690	93.261	585.97
0.59690	95.014	596.99
0.59690	95.249	598.47
0.59690	96.268	604.87
0.59690	96.996	609.44
0.59690	99.866	627.48
0.59690	100.84	633.61
0.59690	104.86	658.83
0.59690	105.81	664.84
0.59690	111.24	698.94
0.59690	114.56	719.81
0.59690	118.31	743.39
0.59690	121.24	761.79
0.62832	24.905	156.48
0.62832	30.496	191.61
0.62832	35.323	221.94
0.62832	41.214	258.96
0.62832	47.219	296.69
0.62832	50.001	314.17
0.62832	50.017	314.27
0.62832	50.089	314.72
0.62832	50.281	315.92
0.62832	50.761	318.94
0.62832	51.911	326.17
0.62832	52.728	331.30
0.62832	54.049	339.60
0.62832	56.107	352.53
0.62832	58.675	368.66
0.62832	62.949	395.52
0.62832	65.808	413.49
0.62832	66.225	416.11
0.62832	70.798	444.84
0.62832	74.039	465.20
0.62832	77.349	486.00
0.62832	79.927	502.19
0.62832	83.305	523.42
0.62832	87.834	551.88
0.62832	90.962	571.53
0.62832	92.290	579.87
0.62832	94.465	593.54
0.62832	96.200	604.44
0.62832	98.066	616.17
0.62832	100.01	628.40
0.62832	100.22	629.68
0.62832	100.95	634.31
0.62832	102.69	645.21
0.62832	104.26	655.06
0.62832	105.94	665.65
0.62832	109.17	685.94
0.62832	112.22	705.12
0.62832	116.58	732.48
0.62832	119.07	748.16
0.62832	123.45	775.65
0.65973	26.244	164.90
0.65973	31.356	197.01
0.65973	36.519	229.45
0.65973	42.181	265.03
0.65973	48.725	306.15
0.65973	52.448	329.54
0.65973	52.502	329.88
0.65973	52.536	330.09
0.65973	52.698	331.11
0.65973	53.132	333.84
0.65973	53.945	338.95
0.65973	54.309	341.23
0.65973	56.141	352.75
0.65973	57.825	363.33
0.65973	60.539	380.38
0.65973	64.435	404.86
0.65973	67.309	422.91
0.65973	67.934	426.84
0.65973	72.501	455.54
0.65973	76.132	478.35
0.65973	78.712	494.56
0.65973	81.460	511.83
0.65973	84.792	532.76
0.65973	88.988	559.13
0.65973	92.987	584.26
0.65973	95.480	599.92
0.65973	96.263	604.84
0.65973	99.209	623.35
0.65973	100.95	634.29
0.65973	104.01	653.49
0.65973	105.01	659.82
0.65973	105.27	661.43
0.65973	105.93	665.58
0.65973	106.78	670.93
0.65973	109.04	685.10
0.65973	112.74	708.38
0.65973	113.18	711.13
0.65973	118.32	743.40
0.65973	120.22	755.34
0.65973	125.42	788.06
0.69115	27.573	173.24
0.69115	32.219	202.44
0.69115	37.715	236.97
